# DASYLab - V 12.00.01\n
# Worksheet name: Olympus AlfonsoX\n
# Recording date     : 27/04/2017, 17:47:24\n
# Block length       : 4\n
# Delta              : 0.333333 sec.\n
# Number of channels : 16\n
# Measurement time[s]	P0 [Pa]	P2 [Pa]	P3t [Pa]	P4t [Pa]	P5t [Pa]	P6t [Pa]	T2t [K]	T3t [K]	T4t1 [K]	T4t2 [K]	T5t1 [K]	T5t2 [K]	T8t [K]	Empuje [N]	fuel [kg/s]	aire [kg/s]	/s]	
0.0000000000	93832.2187500	93313.960938	94046.687500	93653.968750	93806.210938	95358.226563	294.576050	310.092102	345.012878	837.804260	369.117462	463.826385	358.448822	-6.899140	0.000435	0.000000	
0.3333333333	93199.7265625	92683.679688	93365.070313	93390.937500	93173.234375	94692.031250	294.481110	307.154388	348.672180	857.146667	374.508240	485.968140	358.383881	-7.462772	0.000373	0.000000	
0.6666666667	93044.8828125	92524.515625	92995.179688	93130.445313	93056.234375	89898.429688	294.520569	309.645172	352.904572	877.790466	380.749298	504.715668	356.113312	-8.103917	0.000459	0.000464	
1.0000000000	93799.1093750	93280.351563	94001.500000	93590.367188	93775.906250	95294.750000	294.456329	309.682434	359.613525	892.799561	386.869568	518.579834	360.992065	-6.834533	0.000432	0.000000	
1.3333333333	93219.9609375	92705.000000	93401.007813	93402.992188	93189.695313	94675.281250	294.365814	306.873169	366.406464	911.646667	395.869415	528.809265	365.128235	-7.461131	0.000431	0.000000	
1.6666666667	93049.0156250	92531.578125	92992.867188	93150.609375	93060.414063	89740.882813	294.409149	309.248718	372.488312	923.306885	404.891785	539.000977	366.742584	-7.990296	0.000473	0.000451	
2.0000000000	93768.8750000	93250.437500	93963.414063	93538.437500	93749.445313	95277.398438	294.356049	309.326019	382.468292	932.857727	412.887512	557.441223	374.657990	-6.815509	0.000476	0.000000	
2.3333333333	93239.6171875	92726.078125	93442.007813	93426.109375	93206.492188	94785.937500	294.255402	306.670715	391.485474	943.640381	421.335999	566.044495	380.383148	-7.418010	0.000396	0.000000	
2.6666666667	93043.6796875	92525.554688	92991.765625	93175.460938	93055.804688	89528.148438	294.309784	308.949829	400.349915	948.157898	429.220856	575.529602	383.146820	-7.836836	0.000483	0.000465	
3.0000000000	93736.2500000	93219.671875	93919.914063	93475.312500	93723.359375	95286.507813	294.246246	309.103973	411.369843	948.981628	436.951874	588.192261	391.520020	-6.711138	0.000470	0.000000	
3.3333333333	93266.2421875	92747.765625	93477.695313	93450.843750	93228.234375	94795.382813	294.123047	306.623566	423.130890	957.408630	449.146729	597.496338	400.005249	-7.375038	0.000403	0.000000	
3.6666666667	93040.1718750	92523.117188	93003.359375	93204.023438	93052.875000	89302.632813	294.191315	308.718597	435.423584	958.880981	465.706024	610.483154	408.668030	-7.731048	0.000490	0.000471	
4.0000000000	93690.5937500	93169.734375	93861.171875	93411.726563	93682.539063	95237.015625	294.139526	308.948181	450.284058	966.575256	478.158691	625.185730	423.163788	-6.771493	0.000507	0.000000	
4.3333333333	93306.7968750	92791.085938	93522.679688	93488.257813	93265.304688	94842.351563	294.001007	306.552856	466.074677	988.492676	495.426178	636.618530	436.694458	-7.338109	0.000408	0.000000	
4.6666666667	93048.0078125	92528.023438	93020.453125	93229.156250	93060.859375	89077.148438	294.088531	308.562073	480.878143	995.809448	511.644135	647.078186	451.624451	-7.475380	0.000529	0.000459	
5.0000000000	93658.4843750	93135.085938	93814.367188	93362.640625	93653.281250	95155.640625	294.045807	308.829834	504.088165	993.588867	526.006226	659.592346	470.866364	-6.543578	0.000504	0.000000	
5.3333333333	93339.0000000	92817.320313	93549.851563	93503.484375	93294.648438	94857.882813	293.893921	306.544586	522.928101	1013.426331	538.515076	672.035889	486.370728	-7.151227	0.000425	0.000000	
5.6666666667	93050.7968750	92529.765625	93031.703125	93241.375000	93062.773438	88922.812500	293.994659	308.467560	540.662964	1014.306519	553.157776	678.182068	500.789490	-7.248734	0.000511	0.000415	
6.0000000000	93618.1640625	93097.867188	93759.343750	93316.664063	93617.609375	95121.585938	293.951996	308.783875	563.627563	1015.212585	566.049988	688.160950	518.676147	-6.571331	0.000515	0.000000	
6.3333333333	93386.4765625	92871.132813	93596.320313	93535.554688	93338.304688	94847.000000	293.784027	306.648773	589.474060	1019.735596	575.143860	695.420837	536.339600	-7.141080	0.000403	0.000000	
6.6666666667	93045.9375000	92529.468750	93038.117188	93228.968750	93057.578125	88775.171875	293.902527	308.357239	621.426453	1036.139404	589.908264	704.326782	555.104736	-7.098332	0.000544	0.000393	
7.0000000000	93564.1015625	93045.523438	93692.398438	93282.406250	93568.726563	95020.031250	293.864136	308.724945	648.012268	1029.723022	604.297668	721.314453	587.956665	-6.373407	0.000603	0.000155	
7.3333333333	93434.1015625	92915.304688	93649.179688	93567.453125	93383.656250	94923.273438	293.685760	306.753906	675.817444	1045.188110	620.981323	738.119812	619.637024	-7.016567	0.000499	0.000000	
7.6666666667	93052.2812500	92531.296875	93062.179688	93240.343750	93061.796875	88660.000000	293.823425	308.262238	698.526672	1057.179810	639.644104	745.241760	641.845215	-6.829609	0.000638	0.000311	
8.0000000000	93477.5000000	92954.234375	93588.679688	93225.359375	93488.171875	95022.398438	293.795166	308.725433	725.916931	1066.211548	652.509277	757.605286	651.262634	-6.307606	0.000645	0.000346	
8.3333333333	93495.2812500	92976.960938	93713.375000	93606.625000	93445.992188	95076.914063	293.578278	306.986786	748.055481	1061.538208	661.881409	761.895874	660.213562	-6.986128	0.000522	0.000000	
8.6666666667	93042.3359375	92522.765625	93069.953125	93238.890625	93050.007813	88550.023438	293.744812	308.163727	774.907104	1065.823364	677.057983	773.907837	674.806519	-6.486432	0.000672	0.000245	
9.0000000000	93383.2109375	92864.492188	93475.867188	93165.664063	93397.078125	95055.132813	293.721405	308.702789	786.711670	1075.022705	686.948364	790.380615	692.875244	-6.239194	0.000662	0.000439	
9.3333333333	93575.2968750	93056.359375	93792.585938	93654.882813	93531.914063	95239.335938	293.478943	307.268005	805.639221	1080.161499	701.136780	804.034973	706.784912	-6.934801	0.000489	0.000000	
9.6666666667	93036.1328125	92517.742188	93089.117188	93234.257813	93038.484375	88563.171875	293.670105	308.076019	819.469360	1086.320679	713.055542	864.654846	707.694458	-6.228377	0.000679	0.000072	
10.0000000000	93284.5937500	92767.632813	93349.062500	93114.835938	93301.078125	95074.585938	293.645813	308.752533	831.949585	1096.646851	724.768799	902.087463	706.929565	-6.097522	0.000679	0.000497	
10.3333333333	93664.2109375	93145.039063	93889.757813	93723.359375	93626.781250	95402.164063	293.372009	307.678375	845.783936	1112.904541	735.154053	919.848083	713.978882	-6.905929	0.000463	0.000000	
10.6666666667	93039.6484375	92524.406250	93129.078125	93244.375000	93036.820313	88764.234375	293.602783	308.037140	855.489380	1112.798584	747.081787	922.607544	716.019348	-5.845286	0.000681	0.000000	
11.0000000000	93152.3906250	92631.398438	93180.414063	93032.312500	93169.742188	94855.179688	293.597229	308.848480	854.488159	1103.179688	749.528442	920.659973	723.285156	-6.025082	0.000667	0.000516	
11.3333333333	93785.9375000	93263.781250	94011.281250	93791.945313	93757.554688	95562.039063	293.279022	308.134247	855.001831	1092.055054	751.288208	919.991760	730.756348	-6.856690	0.000372	0.000000	
11.6666666667	93069.2968750	92550.328125	93197.992188	93268.992188	93059.789063	89086.468750	293.539978	307.920227	857.503845	1088.407349	754.462769	916.136963	733.216858	-5.818578	0.000666	0.000000	
12.0000000000	93045.5078125	92521.148438	93019.765625	92991.773438	93061.164063	94802.914063	293.532654	308.853668	860.282227	1071.181885	759.020386	924.637268	735.748657	-5.960848	0.000653	0.000464	
12.3333333333	93797.8046875	93275.164063	94020.531250	93731.179688	93774.843750	95502.515625	293.241241	308.747803	859.513855	1061.996460	755.155029	928.192322	735.478333	-6.913763	0.000317	0.000000	
12.6666666667	93163.2500000	92639.218750	93337.453125	93360.117188	93140.195313	89822.679688	293.475677	307.907959	858.949463	1052.126831	752.249634	930.410095	735.870300	-5.804030	0.000652	0.000000	
13.0000000000	93051.2265625	92529.015625	92970.117188	93077.046875	93068.242188	94723.851563	293.478851	308.633026	858.302246	1041.132568	754.250061	941.586609	731.752869	-5.972486	0.000656	0.000502	
13.3333333333	93717.6484375	93198.351563	93934.132813	93577.445313	93705.820313	95212.382813	293.222229	308.934265	863.423096	1032.323730	752.366211	943.449402	729.621521	-6.958375	0.000381	0.000000	
13.6666666667	93260.4687500	92740.890625	93481.382813	93462.054688	93224.585938	90935.585938	293.418396	308.106689	867.919800	1030.402344	752.711121	951.851318	732.236633	-5.825218	0.000654	0.000000	
14.0000000000	93043.4453125	92523.171875	92935.351563	93151.015625	93068.156250	94755.734375	293.435181	308.386230	857.060364	1014.991760	749.615234	952.014282	725.978516	-6.015308	0.000675	0.000728	
14.3333333333	93639.0703125	93114.578125	93841.867188	93441.640625	93640.304688	94903.820313	293.219452	309.006165	864.004883	1010.013855	751.666443	969.567566	723.873413	-6.998811	0.000459	0.000036	
14.6666666667	93344.0000000	92822.960938	93575.789063	93541.179688	93297.570313	92240.078125	293.388062	308.273102	868.834656	1008.929443	753.241760	991.440979	727.750183	-5.787991	0.000723	0.000000	
15.0000000000	93042.6718750	92517.242188	92976.664063	93233.882813	93065.007813	94851.609375	293.412262	308.182098	874.282776	1009.178772	759.779663	998.500793	724.607544	-6.039853	0.000720	0.000648	
15.3333333333	93543.7265625	93022.507813	93718.328125	93342.210938	93562.140625	94344.968750	293.235809	309.080872	881.360474	1002.430237	764.135071	1028.580200	723.492310	-7.056927	0.000497	0.000529	
15.6666666667	93491.0546875	92968.515625	93724.453125	93634.468750	93437.414063	93888.304688	293.350952	308.465912	880.517639	1002.249268	764.938171	1057.123535	724.545898	-5.733082	0.000715	0.000000	
16.0000000000	93046.4218750	92525.125000	93022.289063	93254.921875	93075.000000	94896.289063	293.374664	307.881104	880.570190	1003.290710	772.414368	1087.273926	722.782654	-6.015607	0.000733	0.000806	
16.3333333333	93398.0625000	92874.195313	93544.273438	93250.312500	93432.500000	93531.218750	293.258972	309.199432	888.202026	1001.881287	776.757751	1120.942627	721.822388	-7.011344	0.000574	0.000961	
16.6666666667	93649.0703125	93130.546875	93888.312500	93728.343750	93617.445313	95555.828125	293.311462	308.747101	891.390564	1003.484009	777.095764	1137.667114	725.622742	-5.693468	0.000735	0.000000	
17.0000000000	93040.6562500	92518.109375	93059.617188	93246.960938	93062.023438	94875.617188	293.351807	307.483917	893.508850	1005.914429	784.052246	1153.788818	724.430847	-5.979424	0.000729	0.000590	
17.3333333333	93269.7968750	92745.445313	93380.570313	93167.640625	93300.507813	92615.335938	293.272125	309.262146	894.149170	1002.557495	787.575378	1182.119873	719.059937	-6.991052	0.000623	0.000841	
17.6666666667	93798.5781250	93276.109375	94035.000000	93820.312500	93779.054688	95673.500000	293.271179	308.961151	894.493286	1003.926819	788.129089	1201.879395	723.852295	-5.658926	0.000742	0.000000	
18.0000000000	93042.5781250	92520.460938	93108.859375	93246.046875	93061.335938	94860.312500	293.314392	307.050903	896.304077	1000.893982	795.419983	1201.823242	724.414856	-5.961967	0.000750	0.000510	
18.3333333333	93140.6640625	92616.546875	93213.382813	93085.671875	93184.390625	91710.257813	293.274658	309.275116	897.378540	996.355042	798.713562	1211.301514	720.137695	-6.924058	0.000683	0.001186	
18.6666666667	93945.6328125	93423.367188	94185.273438	93888.445313	93960.953125	95761.343750	293.224945	309.160095	896.878662	991.428894	797.185730	1230.313965	724.994080	-5.623638	0.000749	0.000414	
19.0000000000	93088.3281250	92564.226563	93214.812500	93281.421875	93119.328125	94907.781250	293.228241	306.541992	899.840027	992.470032	804.704895	1252.647095	727.102173	-5.978902	0.000769	0.000831	
19.3333333333	93044.3515625	92519.671875	93075.796875	93068.914063	93122.773438	90809.953125	293.235199	309.340393	906.503967	992.736694	808.727417	1266.314575	727.501648	-6.783280	0.000772	0.002094	
19.6666666667	93879.2187500	93350.343750	94135.976563	93727.070313	93919.992188	95778.296875	293.177734	309.390137	911.868164	990.114380	810.248047	1290.587280	730.581543	-5.557763	0.000775	0.001082	
20.0000000000	93189.7265625	92663.164063	93399.765625	93384.078125	93225.953125	95063.031250	293.132721	306.541534	914.753662	989.783630	813.310547	1298.789429	730.651550	-5.980319	0.000760	0.000959	
20.3333333333	93041.2812500	92519.703125	93045.140625	93143.507813	93127.835938	90017.648438	293.179871	309.318237	915.267334	991.013855	818.509338	1296.645386	730.676941	-6.547980	0.000809	0.002290	
20.6666666667	93762.2421875	93239.140625	94039.335938	93526.773438	93821.742188	95677.640625	293.139648	309.520020	917.818542	991.063477	821.765381	1302.991943	734.064209	-5.413181	0.000816	0.001570	
21.0000000000	93261.0000000	92736.984375	93562.257813	93459.757813	93330.085938	95113.039063	293.056030	307.066467	919.409363	994.857056	825.715759	1308.774414	734.856018	-5.898852	0.000761	0.001819	
21.3333333333	93044.7421875	92519.750000	93142.632813	93223.375000	93150.554688	89499.046875	293.153564	309.328613	917.671570	998.971191	829.866577	1332.221924	731.493469	-6.162353	0.000820	0.002769	
21.6666666667	93669.7812500	93147.835938	94014.328125	93384.000000	93789.101563	95687.335938	293.129364	309.658630	917.322876	995.997498	830.948486	1338.917114	733.468689	-5.298515	0.000830	0.003118	
22.0000000000	93353.8984375	92835.976563	93767.507813	93530.640625	93419.406250	95402.218750	292.997955	307.493347	916.713196	1001.481628	831.762695	1343.796875	733.569275	-5.795227	0.000763	0.001708	
22.3333333333	93042.8671875	92521.750000	93235.796875	93260.804688	93170.312500	89100.554688	293.136414	309.367279	916.399658	1003.863159	834.786499	1350.483154	733.895081	-5.821040	0.000846	0.003318	
22.6666666667	93524.1171875	92997.578125	93978.804688	93278.265625	93660.617188	95698.296875	293.129517	309.777893	918.339722	999.977478	836.052002	1347.401733	735.462646	-5.174001	0.000852	0.003556	
23.0000000000	93480.1484375	92958.007813	94046.382813	93613.187500	93600.000000	95576.421875	292.945160	308.013580	919.065857	1005.262146	837.575317	1353.113525	735.794861	-5.801867	0.000737	0.003117	
23.3333333333	93039.6953125	92512.406250	93477.468750	93258.257813	93216.750000	88870.531250	293.130707	309.281250	914.920471	1007.046997	840.643005	1353.887329	734.059998	-5.454660	0.000872	0.004603	
23.6666666667	93364.4218750	92840.507813	93982.804688	93181.460938	93536.007813	95483.679688	293.129913	309.876892	913.953430	1008.150391	844.595154	1351.625244	734.504517	-5.088281	0.000878	0.004459	
24.0000000000	93618.0234375	93092.984375	94337.687500	93695.406250	93738.312500	95738.296875	292.892029	308.584473	915.531616	1005.789307	846.140442	1352.792603	736.935669	-5.764490	0.000712	0.003122	
24.3333333333	93052.1875000	92525.484375	93690.906250	93257.234375	93246.367188	89004.234375	293.126648	309.231506	912.147156	1003.570862	847.234680	1352.776489	738.347717	-4.909456	0.000900	0.005043	
24.6666666667	93216.9296875	92687.281250	94028.210938	93071.695313	93395.968750	95271.820313	293.137054	310.000397	910.450745	1001.721924	850.078491	1342.973511	737.909851	-4.940341	0.000902	0.004656	
25.0000000000	93737.2578125	93205.664063	94684.046875	93772.507813	93915.226563	95832.218750	292.847595	309.103973	907.504333	1002.470581	850.845520	1340.244385	736.702271	-5.667878	0.000706	0.004631	
25.3333333333	93047.6718750	92516.984375	93908.687500	93251.460938	93281.781250	89256.078125	293.115387	309.219025	903.235901	999.254944	851.127380	1334.749634	735.982056	-4.819931	0.000914	0.006102	
25.6666666667	93102.7968750	92569.164063	94167.179688	93005.046875	93344.312500	95144.703125	293.130737	310.100586	896.948547	997.552734	853.626282	1331.781006	735.168823	-4.908262	0.000925	0.006296	
26.0000000000	93814.8203125	93281.296875	95072.898438	93804.476563	94055.609375	95901.140625	292.824738	309.589569	895.167786	1001.637146	854.707275	1330.567871	736.640686	-5.606628	0.000713	0.006277	
26.3333333333	93080.3984375	92543.882813	94274.046875	93280.414063	93390.437500	89492.359375	293.092346	309.214539	894.541016	1006.637695	855.340332	1331.921021	735.687622	-4.663412	0.000951	0.008085	
26.6666666667	93038.2500000	92505.671875	94404.054688	92990.804688	93360.140625	95059.289063	293.092987	310.231415	885.319824	1006.405701	858.238831	1315.430298	734.552185	-4.693254	0.000957	0.008422	
27.0000000000	93800.6953125	93261.031250	95294.156250	93741.304688	94036.351563	95848.718750	292.803986	310.174133	886.125122	1010.393250	859.100281	1298.603027	737.066467	-5.408331	0.000721	0.006182	
27.3333333333	93144.4609375	92606.281250	94745.039063	93341.640625	93473.468750	90014.125000	293.048126	309.376465	881.328979	1020.094604	859.235474	1281.120117	737.710876	-4.378575	0.000972	0.008675	
27.6666666667	93051.5156250	92511.031250	94838.140625	93055.007813	93390.101563	95205.179688	293.054596	310.265106	874.841492	1023.135071	860.969360	1269.639893	735.979919	-4.430573	0.000974	0.008949	
28.0000000000	93750.3281250	93211.726563	95713.539063	93643.773438	94092.062500	95802.242188	292.790680	310.532898	873.580994	1030.942383	858.701843	1254.138062	736.976746	-5.187206	0.000751	0.009070	
28.3333333333	93217.5078125	92680.164063	95242.742188	93420.351563	93590.992188	90800.015625	293.010254	309.720612	868.688843	1036.591309	854.988525	1229.331665	739.450256	-4.092469	0.001013	0.009984	
28.6666666667	93050.6015625	92511.375000	95220.000000	93115.726563	93492.273438	95228.921875	293.023560	310.301636	862.470459	1035.822510	857.566406	1212.948486	738.840576	-4.117610	0.001048	0.011855	
29.0000000000	93690.9765625	93152.687500	96088.101563	93535.687500	94171.453125	95662.859375	292.787872	310.812439	866.490112	1039.879639	859.533508	1206.080078	742.111572	-4.938327	0.000888	0.012916	
29.3333333333	93291.7578125	92751.382813	95974.804688	93498.375000	93812.742188	91822.242188	292.979950	310.054626	864.556335	1041.032593	860.188782	1199.116577	748.321411	-3.849633	0.001117	0.014033	
29.6666666667	93052.4765625	92512.500000	95870.031250	93176.398438	93614.742188	95455.476563	293.005890	310.308472	861.189880	1049.780884	866.431641	1197.623291	755.726746	-3.879624	0.001166	0.015135	
30.0000000000	93643.2031250	93099.335938	96811.109375	93447.976563	94233.539063	95551.976563	292.794861	311.056885	863.957458	1062.971924	869.553406	1208.386597	759.428101	-4.620739	0.001043	0.015841	
30.3333333333	93356.8750000	92810.617188	96845.937500	93553.429688	94043.125000	93026.578125	292.960815	310.404175	859.404602	1096.484497	870.364014	1207.105103	764.520935	-3.500711	0.001249	0.018436	
30.6666666667	93045.7500000	92497.429688	96851.335938	93243.875000	93794.914063	95626.546875	292.981445	310.443787	854.143982	1114.742554	878.718201	1217.655029	771.728455	-3.449085	0.001293	0.020049	
31.0000000000	93554.8281250	93007.546875	97782.851563	93353.625000	94349.093750	95236.648438	292.799744	311.439209	854.861084	1146.428467	881.683044	1222.241943	770.706909	-4.113433	0.001202	0.021228	
31.3333333333	93467.8906250	92918.875000	98215.203125	93619.796875	94339.679688	94454.703125	292.914398	310.919922	849.915466	1167.931274	879.069092	1215.306885	778.634094	-2.883588	0.001370	0.023372	
31.6666666667	93048.8203125	92492.781250	98167.218750	93261.406250	94003.804688	95785.179688	292.935181	310.597229	843.442383	1204.367798	883.292908	1205.999756	784.631897	-2.715954	0.001411	0.025567	
32.0000000000	93455.4453125	92898.226563	99077.429688	93298.898438	94579.031250	94898.335938	292.799683	311.990540	839.731445	1244.547974	881.890686	1197.159912	785.208069	-3.311143	0.001356	0.029616	
32.3333333333	93582.2656250	93011.929688	99880.789063	93700.843750	94757.828125	95999.007813	292.868744	311.691193	833.570740	1281.236694	878.042480	1179.740967	793.474670	-1.982822	0.001493	0.031007	
32.6666666667	93046.1328125	92481.453125	100072.343750	93369.085938	94397.359375	95957.812500	292.896576	311.065125	826.252380	1316.912842	883.268860	1157.949097	803.297363	-1.707459	0.001537	0.035312	
33.0000000000	93371.7734375	92789.679688	101235.007813	93884.015625	94894.125000	94665.468750	292.794647	312.894287	825.027039	1347.075439	883.084412	1135.436401	811.349243	-2.157544	0.001501	0.039646	
33.3333333333	93673.1953125	93084.515625	102498.484375	95222.742188	95311.398438	96807.632813	292.822601	312.861511	816.434998	1363.029541	876.598450	1101.206055	822.720459	-0.750515	0.001590	0.042892	
33.6666666667	93048.6796875	92445.250000	102929.054688	95626.718750	94750.039063	96276.937500	292.857147	311.998077	803.973389	1358.850586	876.179016	1066.031250	827.218994	-0.319753	0.001638	0.044824	
34.0000000000	93297.1406250	92700.179688	104263.203125	96660.312500	95106.320313	94601.648438	292.772034	314.321991	793.805298	1350.135498	876.976135	1036.572632	827.548462	-0.537447	0.001639	0.047853	
34.3333333333	93754.5546875	93145.078125	106140.953125	98718.804688	95726.773438	97479.921875	292.777954	314.667084	784.892822	1322.608765	871.776489	1014.414856	838.756287	0.873088	0.001716	0.051982	
34.6666666667	93052.2812500	92445.109375	106707.203125	99344.046875	95403.031250	96855.000000	292.826569	313.720673	776.066223	1313.323242	868.436584	984.782959	841.336365	1.561980	0.001760	0.060720	
35.0000000000	93215.5390625	92597.492188	108059.445313	100358.468750	95733.828125	94653.328125	292.775085	316.547852	770.054260	1279.732910	860.059326	965.790649	838.386658	1.677094	0.001762	0.064931	
35.3333333333	93857.1640625	93214.726563	110265.773438	102606.828125	96524.023438	98037.046875	292.758514	317.155060	763.161072	1236.408325	846.549011	945.569946	840.138428	3.198863	0.001824	0.068958	
35.6666666667	93046.1796875	92407.710938	110988.687500	103302.273438	95970.304688	97388.296875	292.809692	315.958801	758.810486	1195.995728	842.744690	933.154175	838.856262	4.020475	0.001864	0.074651	
36.0000000000	93125.4765625	92461.554688	112445.031250	104523.265625	96340.351563	94894.757813	292.792908	319.354034	759.692017	1150.453369	837.276062	921.591675	830.313965	4.419456	0.001882	0.080809	
36.3333333333	93940.2968750	93264.273438	114851.945313	106980.976563	97181.882813	98838.273438	292.741302	320.244324	762.010437	1093.327759	826.260193	904.594971	822.830383	5.891465	0.001927	0.082144	
36.6666666667	93060.4531250	92370.679688	115151.218750	107467.015625	96503.742188	98243.234375	292.772064	318.855957	759.509888	1047.764282	822.129211	889.967163	816.170593	6.861986	0.001965	0.086522	
37.0000000000	93052.2343750	92355.156250	116142.914063	108431.015625	96601.796875	95089.796875	292.789948	322.586395	758.972534	1012.775269	815.036987	873.723206	804.625183	7.259774	0.001986	0.089292	
37.3333333333	93938.1406250	93240.640625	118679.906250	110620.546875	97761.367188	99515.570313	292.729980	323.627991	758.424011	984.758911	803.196655	859.798035	797.822266	8.600554	0.002027	0.095616	
37.6666666667	93094.4765625	92385.726563	118726.820313	110941.843750	96985.890625	98549.382813	292.740143	321.880188	755.645630	966.922607	798.883911	848.797180	788.236938	9.436789	0.002069	0.097043	
38.0000000000	93036.2812500	92288.656250	119506.656250	111685.125000	97008.078125	95102.539063	292.759277	325.785278	753.690552	949.062805	794.585266	840.474915	777.216919	9.915745	0.002075	0.098856	
38.3333333333	93879.1250000	93140.601563	121402.968750	113285.109375	97905.515625	99730.695313	292.722870	326.819824	752.440002	935.043579	787.539001	833.225647	769.148682	11.093441	0.002073	0.100530	
38.6666666667	93137.3984375	92404.703125	121222.210938	113353.046875	97206.132813	98998.570313	292.698273	324.763916	748.027283	926.216492	782.663208	824.345947	762.898682	11.806728	0.002086	0.101519	
39.0000000000	93037.7734375	92275.523438	121386.757813	113350.578125	97251.976563	94886.828125	292.748138	328.362091	743.065796	912.598328	777.921448	817.853027	750.306885	12.089402	0.002083	0.104524	
39.3333333333	93823.5703125	93043.093750	122705.132813	114491.992188	98073.343750	99711.117188	292.714966	329.139008	739.622192	898.593384	770.957764	815.226624	744.603149	12.887962	0.002069	0.105725	
39.6666666667	93187.3281250	92414.757813	121985.125000	113874.617188	97185.257813	98958.867188	292.676239	326.984100	735.657166	894.250366	768.392517	810.635376	742.656006	13.312085	0.002078	0.101121	
40.0000000000	93031.4765625	92267.914063	121657.320313	113654.625000	97085.203125	94478.210938	292.750244	330.121704	731.865234	891.633972	765.646057	807.809814	731.174927	13.212638	0.002079	0.102287	
40.3333333333	93782.5703125	93024.250000	123027.773438	114874.531250	97913.781250	99460.437500	292.719818	330.668335	732.254395	890.794617	761.506958	808.637695	729.924133	13.639297	0.002075	0.104051	
40.6666666667	93214.7187500	92429.031250	122210.445313	114292.218750	97384.062500	98899.460938	292.661285	328.399567	732.975708	888.150269	759.965942	805.261902	728.957520	13.769033	0.002080	0.104757	
41.0000000000	93043.7812500	92307.015625	121764.062500	114017.828125	97351.429688	94372.289063	292.735870	331.161194	730.184998	882.021667	758.564026	801.264343	725.332275	13.610351	0.002084	0.107468	
41.3333333333	93754.9375000	92989.218750	122863.828125	114707.921875	97956.023438	99402.242188	292.703613	331.631226	730.148071	875.324158	754.732300	800.860535	729.496216	13.949202	0.002079	0.105831	
41.6666666667	93233.7500000	92455.914063	122089.937500	114237.359375	97303.304688	98855.437500	292.639954	329.345734	731.793823	876.116760	756.027588	799.112427	724.168152	13.972776	0.002081	0.103241	
42.0000000000	93036.5703125	92256.125000	121557.507813	113815.046875	97212.398438	94076.234375	292.732971	331.878479	729.040344	874.607117	756.731201	795.907715	718.531189	13.690550	0.002083	0.105249	
42.3333333333	93745.6171875	92969.078125	122445.757813	114098.671875	97673.765625	99137.015625	292.712891	332.229218	728.622986	871.287231	755.410156	799.301636	716.901672	13.800442	0.002028	0.100778	
42.6666666667	93227.4531250	92470.742188	118805.835938	110770.132813	96307.742188	97888.320313	292.652985	329.792633	724.687927	863.594849	749.401917	785.633667	700.633972	13.492626	0.001770	0.083650	
43.0000000000	93029.4531250	92305.265625	115540.640625	107572.476563	95648.742188	92613.210938	292.743622	331.816010	709.838562	837.347412	731.427795	758.947754	659.499390	12.470778	0.001648	0.074353	
43.3333333333	93739.2265625	93033.195313	114377.031250	106246.320313	96017.242188	97865.453125	292.716064	331.204346	700.089600	816.478088	717.344849	749.439392	638.939941	11.778603	0.001599	0.066516	
43.6666666667	93248.1718750	92556.242188	112034.750000	104161.421875	95426.640625	97147.843750	292.646881	327.668152	694.609924	808.329834	711.378723	742.482849	628.384338	10.624854	0.001566	0.064278	
44.0000000000	93039.2109375	92368.796875	110357.531250	102683.742188	95212.359375	91864.507813	292.731262	328.882324	691.506592	803.348999	710.996826	741.835754	627.773132	8.893150	0.001576	0.064146	
44.3333333333	93719.9062500	93063.171875	110155.500000	102277.765625	95804.976563	97484.078125	292.715057	328.182953	692.196716	800.165405	713.337646	748.570740	637.015747	7.881447	0.001569	0.061835	
44.6666666667	93271.5703125	92607.320313	108928.531250	101117.250000	95181.843750	96896.343750	292.626373	324.933868	694.092957	809.522705	717.580688	752.481079	643.268127	6.782384	0.001562	0.057302	
45.0000000000	93034.2656250	92366.195313	107955.890625	100317.742188	94962.734375	91417.882813	292.735138	326.260712	696.801453	817.523987	723.762878	758.783569	647.501221	5.460777	0.001587	0.057481	
45.3333333333	93680.1171875	93015.578125	108301.726563	100365.546875	95655.289063	97288.171875	292.711243	325.898651	700.613770	823.520325	726.747009	771.408508	659.966492	5.210331	0.001582	0.058391	
45.6666666667	93307.8593750	92645.679688	107637.312500	99789.226563	95317.242188	96860.281250	292.603790	322.988525	705.428223	837.338440	730.544434	778.660522	668.175720	4.654831	0.001582	0.058969	
46.0000000000	93045.5078125	92392.328125	107058.031250	99385.695313	94980.851563	91256.781250	292.726868	324.497559	708.812744	853.596924	736.803223	784.808167	673.534607	3.969222	0.001596	0.056906	
46.3333333333	93641.4765625	93013.023438	107759.507813	99939.843750	95645.195313	97337.289063	292.720306	324.407288	712.673340	867.148376	741.602722	798.231689	685.347595	4.023757	0.001597	0.058279	
46.6666666667	93346.0156250	92716.132813	107481.968750	99899.078125	95307.781250	96920.921875	292.594391	321.903046	718.937317	881.255676	746.143494	805.553406	698.092834	3.812405	0.001587	0.057017	
47.0000000000	93036.4765625	92415.718750	107050.406250	99623.492188	95144.054688	91191.976563	292.741516	323.520294	719.325012	894.003418	751.210693	809.900757	707.669373	3.474002	0.001602	0.060306	
47.3333333333	93581.6953125	92940.835938	108034.570313	100239.460938	95720.921875	97327.781250	292.735901	323.697784	720.812012	904.100098	755.892944	815.275818	713.712524	3.813598	0.001598	0.060927	
47.6666666667	93384.0312500	92755.226563	107784.757813	99990.546875	95347.343750	97101.265625	292.589172	321.524261	721.671631	915.093140	758.015076	820.072571	717.023376	3.747947	0.001577	0.056579	
48.0000000000	93038.1093750	92395.867188	107284.804688	99795.546875	95151.343750	91135.046875	292.759827	323.056641	721.811707	921.629883	760.829163	816.724792	717.426208	3.604857	0.001599	0.060126	
48.3333333333	93530.5078125	92898.750000	108135.203125	100314.359375	95623.367188	97229.000000	292.757050	323.369659	724.927063	925.173401	762.223572	823.899841	720.208008	3.827922	0.001589	0.059530	
48.6666666667	93433.5312500	92782.265625	108129.039063	100413.898438	95605.468750	97119.289063	292.595184	321.372223	727.403931	927.054199	762.377075	828.152466	724.473755	3.810987	0.001571	0.061318	
49.0000000000	93036.1328125	92388.695313	107508.343750	100154.218750	95274.710938	90989.132813	292.773102	322.733459	728.045715	930.700073	765.959106	825.727356	725.158020	3.780251	0.001603	0.062842	
49.3333333333	93475.3906250	92809.359375	108351.109375	100530.593750	95698.429688	97303.578125	292.773956	323.177551	727.676331	930.409729	767.420227	829.047913	725.699158	4.033605	0.001590	0.062423	
49.6666666667	93470.4375000	92834.554688	108440.789063	100517.148438	95537.796875	97280.234375	292.589050	321.400970	727.322327	936.359985	766.312134	830.962036	727.850464	4.006226	0.001558	0.058711	
50.0000000000	93034.3125000	92386.679688	107928.351563	100357.093750	95210.554688	90998.679688	292.772034	322.651215	727.044189	933.341858	766.687134	824.968872	727.857666	3.942141	0.001573	0.061357	
50.3333333333	93433.5781250	92784.578125	108428.898438	100660.460938	95651.296875	97270.000000	292.773468	323.180145	726.735107	930.408997	767.134766	827.371338	725.791870	4.116714	0.001566	0.062330	
50.6666666667	93505.2343750	92851.906250	108413.773438	100693.437500	95561.750000	97358.882813	292.568237	321.519073	728.856995	930.061401	764.676147	825.515808	724.194397	4.079785	0.001527	0.058588	
51.0000000000	93035.7500000	92381.453125	107656.156250	100059.820313	95157.070313	90968.945313	292.770233	322.589203	727.231689	928.236877	764.006165	819.420044	719.226624	4.110000	0.001564	0.060207	
51.3333333333	93393.3984375	92741.546875	108126.757813	100290.445313	95463.804688	97142.664063	292.767090	323.120972	726.945740	924.458252	763.510681	823.806274	718.064636	4.238989	0.001532	0.058959	
51.6666666667	93548.0546875	92897.070313	108067.578125	100254.867188	95548.484375	97247.703125	292.548065	321.575409	727.036377	923.752319	760.403687	821.515198	714.453552	4.057777	0.001468	0.057411	
52.0000000000	93038.5390625	92389.750000	107207.710938	99688.757813	95157.679688	90860.476563	292.759766	322.401581	723.731384	917.462769	757.201721	815.327393	711.164429	4.039200	0.001511	0.060363	
52.3333333333	93349.8125000	92700.398438	107419.718750	99739.054688	95415.820313	96998.585938	292.765015	322.913086	722.547729	909.074463	756.755554	816.311951	705.694458	3.930801	0.001496	0.059116	
52.6666666667	93590.5859375	92946.781250	107502.031250	99697.781250	95470.179688	97136.695313	292.525177	321.423828	724.266663	909.640991	755.121399	815.408325	707.195862	3.693262	0.001442	0.054742	
53.0000000000	93038.7812500	92390.445313	106602.492188	99056.679688	94955.875000	90745.828125	292.756042	321.976593	723.678589	906.189575	753.702332	812.289063	708.512512	3.713182	0.001497	0.055657	
53.3333333333	93298.1953125	92657.328125	106908.015625	99001.039063	95188.335938	96930.046875	292.761902	322.493500	722.788696	905.679077	754.107361	817.021790	709.395508	3.645889	0.001495	0.054952	
53.6666666667	93636.1875000	92988.218750	107219.429688	99306.015625	95457.078125	97201.390625	292.506561	321.163605	725.766296	909.551025	754.801086	816.778809	712.783020	3.341058	0.001439	0.053137	
54.0000000000	93039.0234375	92393.031250	106131.570313	98735.265625	94945.039063	90705.500000	292.755493	321.540283	726.761841	915.069397	756.637817	816.529541	712.591309	3.468034	0.001507	0.055267	
54.3333333333	93260.4218750	92621.578125	106411.960938	98774.609375	95105.656250	96835.226563	292.761078	322.132172	724.605103	914.123901	758.950989	821.266541	711.374023	3.235195	0.001501	0.053649	
54.6666666667	93663.1015625	93028.445313	106881.492188	99210.929688	95548.500000	97204.914063	292.492554	320.928833	728.439331	918.787231	759.463562	824.189331	716.603638	2.990718	0.001438	0.054660	
55.0000000000	93041.0390625	92419.414063	106051.031250	98608.992188	94998.351563	90855.195313	292.754547	321.216644	728.837830	923.469055	760.963745	822.953369	721.211792	3.274362	0.001509	0.056297	
55.3333333333	93223.1328125	92575.171875	106418.968750	98711.843750	95153.585938	96744.992188	292.772034	321.898346	726.769897	923.455811	763.256836	830.742615	724.636841	3.211396	0.001512	0.055502	
55.6666666667	93704.3359375	93085.187500	106929.570313	99150.601563	95544.585938	97259.234375	292.495819	320.895355	728.700684	923.607056	761.364868	829.203064	727.448242	2.921336	0.001427	0.053351	
56.0000000000	93043.7812500	92423.046875	106032.226563	98541.617188	95009.468750	90857.335938	292.780090	321.013916	726.434204	923.963684	761.556824	824.933289	730.358643	3.115680	0.001502	0.056450	
56.3333333333	93165.9921875	92529.656250	106063.828125	98496.867188	95027.000000	96759.187500	292.797119	321.758087	725.783386	925.702942	762.609314	828.185364	732.139099	3.024887	0.001501	0.053899	
56.6666666667	93745.8593750	93120.117188	106848.671875	99053.460938	95527.546875	97245.992188	292.522369	320.877686	728.426758	927.791443	761.584167	828.405945	736.676331	2.776008	0.001410	0.051759	
57.0000000000	93038.7812500	92406.187500	105896.546875	98255.515625	94885.367188	90976.062500	292.803284	320.778687	728.347839	935.683960	761.463074	823.244019	734.118286	3.131421	0.001495	0.053603	
57.3333333333	93118.7031250	92492.640625	106077.343750	98546.421875	95003.906250	96635.710938	292.839478	321.574463	726.526917	931.989624	762.917908	828.122559	734.133362	3.020410	0.001488	0.054471	
57.6666666667	93782.0937500	93155.875000	106763.695313	98905.757813	95704.804688	97341.890625	292.544250	320.829132	730.236328	936.475586	762.561584	829.936462	734.523804	2.670668	0.001405	0.055403	
58.0000000000	93048.4375000	92411.570313	105881.843750	98384.343750	94964.710938	91030.335938	292.833435	320.618408	731.322754	938.580994	762.287537	830.083435	733.576843	2.967218	0.001493	0.055176	
58.3333333333	93085.8750000	92455.945313	105903.570313	98299.781250	95009.406250	96649.921875	292.854401	321.549469	729.144775	941.567749	763.107178	831.265686	732.095337	2.845315	0.001494	0.055317	
58.6666666667	93796.8984375	93177.218750	106720.304688	98832.835938	95616.531250	97321.281250	292.561279	320.933075	730.229126	943.906067	760.920776	829.742676	734.330872	2.580994	0.001387	0.052788	
59.0000000000	93063.8203125	92432.773438	105748.625000	98195.343750	94946.125000	91080.125000	292.844879	320.513733	729.832458	945.060059	760.838135	827.824341	735.553223	3.028393	0.001493	0.054437	
59.3333333333	93051.9453125	92433.546875	105698.695313	98126.554688	94857.203125	96529.593750	292.864807	321.419128	728.700378	945.827454	762.779724	832.189514	732.713196	2.896120	0.001492	0.052300	
59.6666666667	93814.8671875	93183.585938	106691.359375	98872.500000	95639.046875	97268.007813	292.580383	320.901245	732.315308	946.581055	762.438660	831.191406	731.072815	2.502511	0.001388	0.052864	
60.0000000000	93077.2734375	92448.117188	105882.687500	98200.625000	94918.437500	91119.750000	292.856445	320.369476	731.838501	946.830872	763.005066	829.050964	731.804810	2.853522	0.001491	0.053332	
60.3333333333	93041.6171875	92411.796875	105816.226563	98170.625000	94811.593750	96540.484375	292.884705	321.316833	728.985718	947.584534	765.078796	837.223816	732.270142	2.741243	0.001492	0.051218	
60.6666666667	93822.8437500	93189.906250	106573.492188	98783.000000	95629.312500	97326.312500	292.599487	321.044800	734.186035	947.994324	764.668030	835.345886	730.656738	2.427907	0.001372	0.052275	
61.0000000000	93105.0000000	92485.585938	105847.593750	98218.914063	94916.937500	91250.593750	292.864899	320.328705	733.127502	947.634583	763.133057	835.443054	732.707458	2.910668	0.001498	0.052425	
61.3333333333	93046.2734375	92411.593750	105947.328125	98159.562500	94868.515625	96506.242188	292.883301	321.273926	731.422058	948.315369	764.808044	838.378845	730.298279	2.825844	0.001487	0.052629	
61.6666666667	93793.5312500	93169.156250	106618.078125	98720.671875	95561.093750	97277.953125	292.608521	321.237396	734.403259	949.242798	763.618286	837.552490	730.190735	2.421192	0.001362	0.051195	
62.0000000000	93118.8906250	92500.304688	106023.171875	98308.585938	94991.273438	91449.960938	292.868225	320.321411	733.290405	953.084106	761.217957	833.395874	728.578796	2.856804	0.001490	0.054107	
62.3333333333	93046.3281250	92425.757813	105867.046875	98097.046875	94934.585938	96471.734375	292.887390	321.196594	731.408569	953.935547	762.805847	837.039368	730.785339	2.785035	0.001481	0.054385	
62.6666666667	93778.5859375	93142.695313	106654.273438	98530.906250	95553.406250	97248.000000	292.631012	321.312103	730.838196	956.038086	760.968262	831.128357	731.991455	2.434323	0.001357	0.051538	
63.0000000000	93152.3906250	92519.281250	105754.640625	98197.132813	94952.421875	91683.281250	292.880768	320.300201	730.104858	959.214111	759.806702	829.509094	736.224854	2.953640	0.001487	0.052253	
63.3333333333	93041.7109375	92407.718750	105613.757813	97911.000000	94838.304688	96419.726563	292.909729	321.066956	726.168030	957.876831	762.628540	832.452087	736.283142	2.826067	0.001474	0.052061	
63.6666666667	93745.5234375	93112.093750	106376.164063	98396.914063	95543.187500	97176.085938	292.666016	321.260712	730.127991	959.027039	762.594604	833.528992	733.463867	2.381578	0.001352	0.052096	
64.0000000000	93177.6171875	92545.289063	105712.820313	98211.039063	95030.445313	91913.031250	292.900574	320.295929	730.533325	961.335144	761.753967	833.346375	732.186218	2.782648	0.001498	0.053603	
64.3333333333	93036.9062500	92399.031250	105819.773438	98044.859375	94886.929688	96563.562500	292.933746	320.941101	726.754639	960.458313	765.186951	837.562744	734.870178	2.680217	0.001521	0.053394	
64.6666666667	93713.5625000	93083.460938	106572.937500	98635.359375	95606.804688	97175.343750	292.698425	321.230072	731.683105	962.008789	764.449646	842.908752	740.132141	2.271985	0.001421	0.054446	
65.0000000000	93207.5625000	92576.296875	106206.078125	98563.585938	95155.726563	92389.250000	292.918640	320.320221	734.198059	969.578613	765.518616	842.277954	743.063110	2.888660	0.001555	0.055679	
65.3333333333	93039.2109375	92391.929688	106335.726563	98712.500000	95015.203125	96636.804688	292.950043	320.868500	731.405579	976.458496	769.352783	849.753357	743.886902	2.891570	0.001558	0.056120	
65.6666666667	93688.1406250	93063.125000	107247.617188	99093.843750	95716.492188	97190.695313	292.721893	321.382355	736.145020	986.007141	769.237976	850.349121	743.535706	2.514149	0.001463	0.057410	
66.0000000000	93244.0390625	92606.757813	106896.546875	99281.437500	95368.359375	92831.789063	292.927521	320.568207	736.590271	989.297852	767.720398	846.883972	747.940918	3.080019	0.001566	0.059715	
66.3333333333	93039.0703125	92395.429688	106743.523438	99324.867188	95049.664063	96672.437500	292.949860	321.008759	731.200317	991.700256	770.884155	848.361084	746.811523	3.157607	0.001567	0.056931	
66.6666666667	93670.8359375	93030.632813	107749.601563	99558.562500	95699.773438	97091.343750	292.737213	321.628906	731.665100	991.228699	769.438660	849.249634	745.282349	2.857028	0.001465	0.057438	
67.0000000000	93274.9843750	92638.210938	107362.812500	99650.078125	95364.265625	93232.625000	292.928497	320.903839	731.897034	987.861328	765.448914	841.837036	744.407471	3.541294	0.001572	0.059026	
67.3333333333	93043.3437500	92367.984375	107027.273438	99508.359375	95196.937500	96668.015625	292.950897	321.203674	729.154053	984.219238	766.822021	842.916626	738.183472	3.569047	0.001568	0.060477	
67.6666666667	93638.7343750	93006.953125	107829.851563	99799.703125	95669.656250	96990.273438	292.745117	321.912231	732.871582	980.142822	765.637329	843.631653	733.660156	3.152012	0.001473	0.057649	
68.0000000000	93316.2187500	92643.359375	107386.328125	99779.976563	95350.328125	93848.820313	292.930328	321.208862	732.195251	980.892944	763.127014	840.903503	729.450928	3.744888	0.001572	0.057785	
68.3333333333	93045.2656250	92393.531250	107298.406250	99609.328125	95204.625000	96705.507813	292.953400	321.251770	727.965881	973.993164	766.090393	840.639099	727.859802	3.703110	0.001569	0.060670	
68.6666666667	93593.8984375	92939.968750	107711.523438	99683.171875	95612.328125	96661.796875	292.764160	322.126984	733.271545	972.295898	765.472351	840.901428	726.095642	3.220572	0.001469	0.057401	
69.0000000000	93394.8906250	92733.750000	107578.156250	100148.554688	95500.335938	94689.953125	292.919769	321.485840	733.089111	970.554260	762.229858	837.323059	730.469482	3.795470	0.001563	0.059563	
69.3333333333	93042.1953125	92377.117188	107339.632813	99651.218750	95030.335938	96779.640625	292.948822	321.290649	729.363770	965.829895	766.023987	836.482544	729.421326	3.805541	0.001568	0.056697	
69.6666666667	93510.8046875	92860.476563	107827.367188	99743.148438	95662.953125	96248.929688	292.788483	322.304230	733.697571	966.193237	765.374146	839.862854	725.722717	3.292789	0.001476	0.060575	
70.0000000000	93479.3750000	92837.218750	107834.195313	100023.632813	95484.890625	95760.257813	292.906219	321.689972	732.187195	960.541870	760.223450	835.464539	728.105896	3.930727	0.001572	0.057275	
70.3333333333	93038.1562500	92382.257813	107311.828125	99520.468750	95048.601563	96548.695313	292.947662	321.093140	727.582764	957.779968	763.246887	833.455627	730.498474	3.902303	0.001570	0.057328	
70.6666666667	93437.7578125	92817.632813	107670.757813	99439.625000	95497.906250	95814.945313	292.826996	322.354919	729.785645	955.189270	763.067810	835.688477	728.551636	3.318304	0.001492	0.058509	
71.0000000000	93564.0546875	92925.093750	107777.523438	100126.546875	95634.703125	96717.945313	292.914764	321.793427	728.906494	953.028992	759.675415	835.996582	731.959717	3.943633	0.001575	0.058828	
71.3333333333	93038.3437500	92412.437500	107447.726563	99616.875000	95081.164063	96683.179688	292.960052	320.904083	725.525330	957.106323	763.346375	836.542908	727.517090	3.887979	0.001573	0.058037	
71.6666666667	93366.4843750	92694.414063	107588.210938	99718.625000	95463.656250	95347.007813	292.864685	322.387665	729.274048	955.556091	762.819946	835.999939	724.574036	3.294803	0.001503	0.059378	
